# Emission spectrum of  in cyclohexane
#
# Data from PhotochemCAD 2.1a has been munged on  2 June 2017 by Scott Prahl to make
# the information available to non-Windows users.  Although I have tried to be as careful
# as possible, I may have introduced some error; the cautious user is advised to compare
# these results with the original sources at www.photochemcad.com:
#
# H. Du, R. A. Fuh, J. Li, A. Corkan, J. S. Lindsey, "PhotochemCAD: A computer-aided design
#     and research tool in photochemistry," Photochem. Photobiol., 68, 141-142, 1998. 
# J. M. Dixon, M. Taniguchi and J. S. Lindsey "PhotochemCAD 2. A refined program with accompanying 
#     spectral databases for photochemical calculations", Photochem. Photobiol., 81, 212-213, 2005.
#
# The spectral absorption measurements were made by  on on 06-26-1995 
# using a Spex FluoroMax.   The excitation and emission monochromators were set at 1 mm, giving a spectral bandwidth of 4.25 nm.  The data interval was 0.5 nm and the integration time was 2.0 sec. Samples were prepared in 1cm pathlength quartz cells with absorbance less than 0.1 at the excitation and all emission wavelengths to uniformly illuminate across the sample, and to avoid the inner-filter effect.  The dark counts were subtracted and the spectra were corrected for wavelength-dependent instrument sensitivity.
#
##Wavelength (nm)	Emission (AU)
360	12278
360.5	12010
361	12947
361.5	14717
362	15965
362.5	18350
363	20243
363.5	25391
364	28532
364.5	37496
365	45676
365.5	64488
366	76754
366.5	100215
367	119259
367.5	153664
368	173668
368.5	210646
369	243976
369.5	322778
370	381789
370.5	516466
371	640904
371.5	909040
372	1084956
372.5	1367229
373	1576096
373.5	1867891
374	1991253
374.5	2142392
375	2188145
375.5	2169947
376	2119233
376.5	1981565
377	1878321
377.5	1705462
378	1620992
378.5	1503500
379	1439594
379.5	1359090
380	1315964
380.5	1247804
381	1193214
381.5	1077579
382	1015838
382.5	899011
383	831727
383.5	728178
384	686894
384.5	629959
385	600098
385.5	572743
386	568580
386.5	563753
387	568048
387.5	591295
388	609407
388.5	655284
389	702256
389.5	795633
390	857744
390.5	972587
391	1077272
391.5	1249132
392	1352277
392.5	1521261
393	1646834
393.5	1848325
394	1952681
394.5	2101013
395	2185521
395.5	2288127
396	2316505
396.5	2335542
397	2324242
397.5	2274595
398	2230664
398.5	2142813
399	2069196
399.5	1931829
400	1858800
400.5	1725909
401	1639351
401.5	1507159
402	1439500
402.5	1329558
403	1259751
403.5	1152409
404	1099099
404.5	1005332
405	948631
405.5	858575
406	820101
406.5	744370
407	702787
407.5	644797
408	621242
408.5	587429
409	570202
409.5	552724
410	550603
410.5	552586
411	558466
411.5	577842
412	591178
412.5	619585
413	645665
413.5	690470
414	715091
414.5	763269
415	798706
415.5	855408
416	885752
416.5	933138
417	969101
417.5	1012725
418	1035679
418.5	1064859
419	1079857
419.5	1095693
420	1100391
420.5	1098705
421	1090480
421.5	1067651
422	1052267
422.5	1017858
423	992380
423.5	940842
424	914484
424.5	861485
425	826628
425.5	768258
426	736997
426.5	683067
427	649364
427.5	594678
428	566658
428.5	522257
429	494377
429.5	452648
430	433476
430.5	398996
431	378712
431.5	348591
432	335635
432.5	314726
433	300932
433.5	283034
434	276119
434.5	264958
435	259297
435.5	252436
436	249976
436.5	249824
437	249069
437.5	251349
438	252454
438.5	257110
439	261380
439.5	267724
440	271616
440.5	278566
441	283968
441.5	292172
442	296612
442.5	304716
443	309726
443.5	316340
444	319233
444.5	323318
445	325228
445.5	326765
446	328004
446.5	326620
447	325430
447.5	321697
448	317378
448.5	310851
449	304970
449.5	293899
450	287285
450.5	274841
451	267136
451.5	251076
452	242529
452.5	227981
453	218139
453.5	202144
454	195065
454.5	180511
455	171425
455.5	158161
456	152531
456.5	142230
457	134717
457.5	125015
458	119827
458.5	112056
459	107198
459.5	100261
460	97449
460.5	92374
461	89123
461.5	85247
462	82909
462.5	79844
463	77909
463.5	75102
464	74284
464.5	72436
465	71468
465.5	70287
466	69579
466.5	68966
467	68481
467.5	68433
468	68207
468.5	68311
469	68513
469.5	68279
470	68546
470.5	69285
471	69355
471.5	69696
472	70051
472.5	70019
473	70183
473.5	70372
474	70149
474.5	70359
475	70210
475.5	69479
476	68888
476.5	68172
477	67098
477.5	65904
478	65078
478.5	63140
479	61726
479.5	59302
480	58374
480.5	56049
481	54476
481.5	51510
482	50415
482.5	47706
483	46066
483.5	43619
484	42262
484.5	40278
485	38500
485.5	36341
486	35183
486.5	33395
487	31828
487.5	30179
488	29387
488.5	27918
489	26916
489.5	25466
490	24525
490.5	23271
491	22750
491.5	21561
492	20999
492.5	20174
493	19607
493.5	18686
494	18544
494.5	17739
495	17257
495.5	16671
496	16362
496.5	15952
497	15486
497.5	15358
498	14838
498.5	14866
499	14648
499.5	14096
500	14117
500.5	13746
501	13766
501.5	13605
502	13598
502.5	13238
503	13347
503.5	13179
504	13081
504.5	12877
505	12795
505.5	12650
506	12666
506.5	12731
507	12521
507.5	12189
508	12288
508.5	12144
509	11930
509.5	12019
510	11617
510.5	11585
511	11347
511.5	11051
512	10937
512.5	10748
513	10661
513.5	10163
514	10050
514.5	9935
515	9605
515.5	9362
516	9105
516.5	8857
517	8816
517.5	8463
518	8336
518.5	7824
519	7861
519.5	7455
520	7378
520.5	7124
521	6925
521.5	6512
522	6375
522.5	6255
523	6051
523.5	5794
524	5664
524.5	5559
525	5368
525.5	5202
526	5023
526.5	4944
527	4774
527.5	4643
528	4583
528.5	4471
529	4456
529.5	4139
530	4187
530.5	4023
531	4039
531.5	3840
532	3938
532.5	3836
533	3713
533.5	3685
534	3618
534.5	3581
535	3531
535.5	3460
536	3467
536.5	3424
537	3530
537.5	3367
538	3399
538.5	3386
539	3440
539.5	3295
540	3373
540.5	3254
541	3262
541.5	3123
542	3172
542.5	3228
543	3263
543.5	3146
544	3118
544.5	3145
545	3197
545.5	3063
546	3102
546.5	3102
547	2914
547.5	2937
548	2967
548.5	2954
549	2896
549.5	2955
550	2858
550.5	2771
551	2818
551.5	2835
552	2793
552.5	2787
553	2802
553.5	2726
554	2560
554.5	2692
555	2654
555.5	2636
556	2536
556.5	2581
557	2508
557.5	2491
558	2575
558.5	2480
559	2453
559.5	2374
560	2480
560.5	2426
561	2355
561.5	2332
562	2413
562.5	2395
563	2276
563.5	2352
564	2273
564.5	2223
565	2311
565.5	2209
566	2186
566.5	2228
567	2198
567.5	2198
568	2196
568.5	2184
569	2238
569.5	2189
570	2221
570.5	2075
571	2110
571.5	2163
572	2062
572.5	2127
573	2093
573.5	2096
574	2100
574.5	2091
575	2016
575.5	2088
576	2165
576.5	2180
577	2105
577.5	2110
578	2109
578.5	2073
579	2189
579.5	2036
580	2133
580.5	2048
581	2072
581.5	2134
582	2110
582.5	2052
583	2133
583.5	2102
584	2091
584.5	2131
585	2039
585.5	2109
586	2135
586.5	2084
587	2095
587.5	2050
588	2101
588.5	2195
589	2088
589.5	2199
590	2108
590.5	2147
591	2130
591.5	2103
592	2171
592.5	2244
593	2200
593.5	2117
594	2101
594.5	2116
595	2080
595.5	2137
596	2223
596.5	2137
597	2071
597.5	2217
598	2097
598.5	2152
599	2138
599.5	2034
600	2133
600.5	2157
601	2090
601.5	2107
602	2188
602.5	2185
603	2083
603.5	2174
604	2168
604.5	2198
605	2191
605.5	2087
606	2122
606.5	2222
607	2380
607.5	2321
608	2394
608.5	2415
609	2342
609.5	2218
610	2301
610.5	2280
611	2276
611.5	2343
612	2262
612.5	2287
613	2245
613.5	2439
614	2326
614.5	2311
615	2341
615.5	2383
616	2431
616.5	2363
617	2325
617.5	2451
618	2432
618.5	2308
619	2396
619.5	2371
620	2439
620.5	2527
621	2385
621.5	2506
622	2388
622.5	2528
623	2389
623.5	2543
624	2434
624.5	2652
625	2460
625.5	2496
626	2504
626.5	2532
627	2496
627.5	2649
628	2614
628.5	2663
629	2674
629.5	2478
630	2587
630.5	2589
631	2623
631.5	2675
632	2667
632.5	2725
633	2653
633.5	2634
634	2709
634.5	2757
635	2724
635.5	2624
636	2639
636.5	2712
637	2603
637.5	2650
638	2701
638.5	2681
639	2797
639.5	2835
640	2779
640.5	2680
641	2647
641.5	2648
642	2755
642.5	2939
643	2850
643.5	2796
644	2709
644.5	2728
645	2877
645.5	2797
646	2702
646.5	2843
647	2745
647.5	2680
648	2936
648.5	2931
649	3034
649.5	2942
650	2818
